# Mean Square Displacements at a function of temperature.
# Temperature [K], <(u_{1}^{x})^{2}>, <(u_{1}^{y})^{2}>, <(u_{1}^{z})^{2}>, .... [Angstrom^2]
              0     0.00164997     0.00164997     0.00164997     0.00142992     0.00142992     0.00142992     0.00214833     0.00443221     0.00443221     0.00443221     0.00214833     0.00443221     0.00443221     0.00443221     0.00214833
             50     0.00179192     0.00179192     0.00179192     0.00147415     0.00147415     0.00147415     0.00216426     0.00452119     0.00452119     0.00452119     0.00216426     0.00452119     0.00452119     0.00452119     0.00216426
            100     0.00243547     0.00243547     0.00243547     0.00167117     0.00167117     0.00167117     0.00223927     0.00506031     0.00506031     0.00506031     0.00223927     0.00506031     0.00506031     0.00506031     0.00223927
            150     0.00322734     0.00322734     0.00322734     0.00195128     0.00195128     0.00195128      0.0023702     0.00588383     0.00588383     0.00588383      0.0023702     0.00588383     0.00588383     0.00588383      0.0023702
            200     0.00403922     0.00403922     0.00403922     0.00226191     0.00226191     0.00226191      0.0025456     0.00682971     0.00682971     0.00682971      0.0025456     0.00682971     0.00682971     0.00682971      0.0025456
            250     0.00484026     0.00484026     0.00484026     0.00258093     0.00258093     0.00258093     0.00275479     0.00782293     0.00782293     0.00782293     0.00275479     0.00782293     0.00782293     0.00782293     0.00275479
            300       0.005622       0.005622       0.005622     0.00289911     0.00289911     0.00289911     0.00298778     0.00883006     0.00883006     0.00883006     0.00298778     0.00883006     0.00883006     0.00883006     0.00298778
            350     0.00638244     0.00638244     0.00638244     0.00321259     0.00321259     0.00321259     0.00323682      0.0098356      0.0098356      0.0098356     0.00323682      0.0098356      0.0098356      0.0098356     0.00323682
            400     0.00712181     0.00712181     0.00712181     0.00351982     0.00351982     0.00351982     0.00349641      0.0108322      0.0108322      0.0108322     0.00349641      0.0108322      0.0108322      0.0108322     0.00349641
            450     0.00784107     0.00784107     0.00784107     0.00382033     0.00382033     0.00382033     0.00376275      0.0118163      0.0118163      0.0118163     0.00376275      0.0118163      0.0118163      0.0118163     0.00376275
            500     0.00854142     0.00854142     0.00854142     0.00411408     0.00411408     0.00411408     0.00403322      0.0127864      0.0127864      0.0127864     0.00403322      0.0127864      0.0127864      0.0127864     0.00403322
            550     0.00922406     0.00922406     0.00922406     0.00440129     0.00440129     0.00440129       0.004306      0.0137419      0.0137419      0.0137419       0.004306      0.0137419      0.0137419      0.0137419       0.004306
            600     0.00989017     0.00989017     0.00989017     0.00468227     0.00468227     0.00468227     0.00457986      0.0146829      0.0146829      0.0146829     0.00457986      0.0146829      0.0146829      0.0146829     0.00457986
            650      0.0105408      0.0105408      0.0105408     0.00495735     0.00495735     0.00495735     0.00485388      0.0156098      0.0156098      0.0156098     0.00485388      0.0156098      0.0156098      0.0156098     0.00485388
            700       0.011177       0.011177       0.011177     0.00522686     0.00522686     0.00522686     0.00512746      0.0165228      0.0165228      0.0165228     0.00512746      0.0165228      0.0165228      0.0165228     0.00512746
            750      0.0117995      0.0117995      0.0117995     0.00549114     0.00549114     0.00549114     0.00540015      0.0174226      0.0174226      0.0174226     0.00540015      0.0174226      0.0174226      0.0174226     0.00540015
            800      0.0124093      0.0124093      0.0124093     0.00575049     0.00575049     0.00575049     0.00567163      0.0183097      0.0183097      0.0183097     0.00567163      0.0183097      0.0183097      0.0183097     0.00567163
            850       0.013007       0.013007       0.013007      0.0060052      0.0060052      0.0060052     0.00594168      0.0191846      0.0191846      0.0191846     0.00594168      0.0191846      0.0191846      0.0191846     0.00594168
            900      0.0135933      0.0135933      0.0135933     0.00625553     0.00625553     0.00625553     0.00621015       0.020048       0.020048       0.020048     0.00621015       0.020048       0.020048       0.020048     0.00621015
            950      0.0141689      0.0141689      0.0141689     0.00650172     0.00650172     0.00650172     0.00647692      0.0209002      0.0209002      0.0209002     0.00647692      0.0209002      0.0209002      0.0209002     0.00647692
           1000      0.0147342      0.0147342      0.0147342     0.00674399     0.00674399     0.00674399     0.00674194      0.0217417      0.0217417      0.0217417     0.00674194      0.0217417      0.0217417      0.0217417     0.00674194
